

Sample:                                                                 
Filename: C:\Users\ueen_nuclear\Desktop\Deimos\\b5U10_2_p3.Chn
File created or changed:   26/10/2022
No.of channels: 16100
Measurement date: 19/OCT/22     16:39
Evaluated : 27/10/2022 13:30:21
Live time: 153724.0 s   Real time: 153966.0 s    Dead time:  0.16 %
Counts total:  10283954    Input counts/sec:     67
            Satellite peaks:
s10: 0.000  s11: 0.000  s12: 0.000
d10:   2.5  d11:   4.0  d12:  10.0
s20: 0.000  s21: 0.000  s22: 0.000
d20:   0.0  d21:   0.0  d22:   0.0
base: 0.00000

            ENERGY CALIBRATION
 7.188807656520E+0000  4.120696530639E-0002  0.000000000000E+0000  0.000000000000E+0000

            FWHM CALIBRATION
-3.070922177419E+0001  4.536290322581E-0003  0.000000000000E+0000

Energy: preliminary linear calibration
FWHM: preliminary linear calibration

  channel  cherr    energy      area aerr%  fwhm chisq it left   n  lim isotope
==============================================================================
15618.018  0.083   650.760   28398.3   1.0 26.86  1.21  40 15495 189 1181


Sample:                                                                 
Filename: C:\Users\ueen_nuclear\Desktop\Deimos\\b5U10_2_p3.Chn
File created or changed:   26/10/2022
No.of channels: 16100
Measurement date: 19/OCT/22     16:39
Evaluated : 27/10/2022 13:39:41
Live time: 153724.0 s   Real time: 153966.0 s    Dead time:  0.16 %
Counts total:  10283954    Input counts/sec:     67
            Satellite peaks:
s10: 0.000  s11: 0.000  s12: 0.000
d10:   2.5  d11:   4.0  d12:  10.0
s20: 0.000  s21: 0.000  s22: 0.000
d20:   0.0  d21:   0.0  d22:   0.0
base: 0.00000

            ENERGY CALIBRATION
 6.583305948078E+0000  4.926059809399E-0002  0.000000000000E+0000  0.000000000000E+0000

            FWHM CALIBRATION
 2.288496775628E+0001  1.148914090875E-0003  0.000000000000E+0000

Energy: preliminary linear calibration
FWHM: preliminary linear calibration

  channel  cherr    energy      area aerr%  fwhm chisq it left   n  lim isotope
====================================================

Sample:                                                                 
Filename: C:\Users\ueen_nuclear\Desktop\Deimos\\b5U10_2_p3.Chn
File created or changed:   26/10/2022
No.of channels: 16100
Measurement date: 19/OCT/22     16:39
Evaluated : 27/10/2022 14:10:47
Live time: 153724.0 s   Real time: 153966.0 s    Dead time:  0.16 %
Counts total:  10283954    Input counts/sec:     67
            Satellite peaks:
s10: 0.000  s11: 0.000  s12: 0.000
d10:   2.5  d11:   4.0  d12:  10.0
s20: 0.000  s21: 0.000  s22: 0.000
d20:   0.0  d21:   0.0  d22:   0.0
base: 0.00000

            ENERGY CALIBRATION
 6.583305948078E+0000  4.926059809399E-0002  0.000000000000E+0000  0.000000000000E+0000

            FWHM CALIBRATION
 2.288496775628E+0001  1.148914090875E-0003  0.000000000000E+0000

Energy: preliminary linear calibration
FWHM: preliminary linear calibration

  channel  cherr    energy      area aerr%  fwhm chisq it left   n  lim isotope
==============================================================================
 1168.076  0.158    64.123   17587.3   2.5 21.11  1.00  11 1087 125 2234
 1541.443  0.571    82.516    5988.8   5.2 22.64  1.36  16 1491 152 2815
 1599.937  0.095    85.397   43539.4   1.5 22.71  1.36  16 1491 152 3056
 1718.830  0.127    91.254   33228.3   1.1 23.26  8.29  26 1640 317 3084
 1771.275  0.109    93.837  162077.3   1.3 23.32  8.29  26 1640 317 3898
 1785.938  0.299    94.560   70484.9   2.8 23.34  8.29  26 1640 317 4982
 1815.932  0.036    96.037  227843.3   0.3 23.37  8.29  26 1640 317 5302
 1893.857  0.019    99.876  418993.5   0.3 23.46  8.29  26 1640 317 4513
 2037.753  0.270   106.964   23362.1   3.2 30.05  1.17  10 1997  83 3599
 2117.441  0.193   110.890   50814.8   1.1 31.36  7.62  50 2068 209 3981
 2155.592  0.062   112.769  235416.9   0.5 31.40  7.62  50 2068 209 5898
 2190.216  0.458   114.475   25311.6   2.3 31.44  7.62  50 2068 209 5525
 2228.053  0.093   116.339   93676.3   0.7 31.49  7.62  50 2068 209 4741
 2358.241  0.564   122.752    5355.9   8.8 23.74  1.07  16 2281 110 2271
 2830.784  0.043   146.029  103458.7   0.6 22.40  1.35  11 2749 132 3008
 3235.976  0.061   165.989   63899.3   0.9 22.84  1.07  14 3153 145 2468
 3697.952  0.011   188.747  904410.2   0.2 23.18  3.51   8 3612 168 4013
 3888.875  0.229   198.152   10550.6   3.3 22.74  0.94   9 3798 171 1925
 4037.351  0.139   205.466   19671.1   1.2 23.49  1.04  11 3952 231 1879
 4103.678  0.044   208.733   92448.0   0.6 23.57  1.04  11 3952 231 2449
 5198.154  0.296   262.647    6940.9   4.1 23.52  1.00  10 5093 224 1568
11624.766  0.736   579.226    2267.0   7.6 31.51  1.13  23 11510 228 1153
15138.102  1.497   752.295     936.8   9.1 32.16  0.94  10 15049 222  907
15195.382  0.231   755.117    8431.8   2.4 32.23  0.94  10 15049 222 1166
15008.107  1.414   745.892    1135.9  19.4 31.02  0.70  14 14977 103  900
15618.018  0.083   775.936   28500.9   1.0 26.86  1.21  15 15495 189 1181
15835.198  1.122   786.635     827.4   9.8 22.24  0.95  10 15755 231  759
15889.235  0.240   789.297    4930.2   3.5 22.30  0.95  10 15755 231  897
